creator: /Users/zhuqf/research/WFST/sensitivity/flux_std/skyspectrum/check_skymag.pro
source: /Users/zhuqf/research/WFST/sensitivity/throughput/filter_trans/Johnson-Cousins/V_trans_Johnson.txt
 Wave (AA) Transmission
  4700.00    0.0000000
  4701.00    0.0003026
  4702.00    0.0006102
  4703.00    0.0009224
  4704.00    0.0012389
  4705.00    0.0015594
  4706.00    0.0018836
  4707.00    0.0022112
  4708.00    0.0025418
  4709.00    0.0028751
  4710.00    0.0032108
  4711.00    0.0035486
  4712.00    0.0038883
  4713.00    0.0042293
  4714.00    0.0045716
  4715.00    0.0049147
  4716.00    0.0052583
  4717.00    0.0056022
  4718.00    0.0059459
  4719.00    0.0062893
  4720.00    0.0066320
  4721.00    0.0069736
  4722.00    0.0073140
  4723.00    0.0076527
  4724.00    0.0079894
  4725.00    0.0083238
  4726.00    0.0086557
  4727.00    0.0089847
  4728.00    0.0093105
  4729.00    0.0096327
  4730.00    0.0099511
  4731.00    0.0102653
  4732.00    0.0105750
  4733.00    0.0108799
  4734.00    0.0111797
  4735.00    0.0114739
  4736.00    0.0117624
  4737.00    0.0120447
  4738.00    0.0123206
  4739.00    0.0125896
  4740.00    0.0128515
  4741.00    0.0131059
  4742.00    0.0133525
  4743.00    0.0135909
  4744.00    0.0138207
  4745.00    0.0140416
  4746.00    0.0142533
  4747.00    0.0144553
  4748.00    0.0146474
  4749.00    0.0148291
  4750.00    0.0150000
  4751.00    0.0151601
  4752.00    0.0153100
  4753.00    0.0154508
  4754.00    0.0155834
  4755.00    0.0157089
  4756.00    0.0158282
  4757.00    0.0159423
  4758.00    0.0160522
  4759.00    0.0161588
  4760.00    0.0162631
  4761.00    0.0163662
  4762.00    0.0164689
  4763.00    0.0165722
  4764.00    0.0166771
  4765.00    0.0167846
  4766.00    0.0168956
  4767.00    0.0170112
  4768.00    0.0171323
  4769.00    0.0172598
  4770.00    0.0173949
  4771.00    0.0175383
  4772.00    0.0176912
  4773.00    0.0178545
  4774.00    0.0180293
  4775.00    0.0182164
  4776.00    0.0184170
  4777.00    0.0186320
  4778.00    0.0188625
  4779.00    0.0191095
  4780.00    0.0193739
  4781.00    0.0196569
  4782.00    0.0199595
  4783.00    0.0202827
  4784.00    0.0206276
  4785.00    0.0209953
  4786.00    0.0213868
  4787.00    0.0218032
  4788.00    0.0222457
  4789.00    0.0227153
  4790.00    0.0232131
  4791.00    0.0237404
  4792.00    0.0242981
  4793.00    0.0248875
  4794.00    0.0255098
  4795.00    0.0261661
  4796.00    0.0268576
  4797.00    0.0275855
  4798.00    0.0283510
  4799.00    0.0291554
  4800.00    0.0300000
  4801.00    0.0308855
  4802.00    0.0318109
  4803.00    0.0327747
  4804.00    0.0337755
  4805.00    0.0348117
  4806.00    0.0358821
  4807.00    0.0369850
  4808.00    0.0381193
  4809.00    0.0392833
  4810.00    0.0404758
  4811.00    0.0416954
  4812.00    0.0429407
  4813.00    0.0442104
  4814.00    0.0455031
  4815.00    0.0468174
  4816.00    0.0481522
  4817.00    0.0495059
  4818.00    0.0508775
  4819.00    0.0522654
  4820.00    0.0536685
  4821.00    0.0550854
  4822.00    0.0565149
  4823.00    0.0579557
  4824.00    0.0594065
  4825.00    0.0608660
  4826.00    0.0623330
  4827.00    0.0638062
  4828.00    0.0652844
  4829.00    0.0667662
  4830.00    0.0682505
  4831.00    0.0697359
  4832.00    0.0712213
  4833.00    0.0727053
  4834.00    0.0741867
  4835.00    0.0756642
  4836.00    0.0771367
  4837.00    0.0786027
  4838.00    0.0800612
  4839.00    0.0815107
  4840.00    0.0829500
  4841.00    0.0843778
  4842.00    0.0857930
  4843.00    0.0871941
  4844.00    0.0885799
  4845.00    0.0899491
  4846.00    0.0913003
  4847.00    0.0926324
  4848.00    0.0939439
  4849.00    0.0952336
  4850.00    0.0965000
  4851.00    0.0977424
  4852.00    0.0989620
  4853.00    0.1001603
  4854.00    0.1013392
  4855.00    0.1025002
  4856.00    0.1036451
  4857.00    0.1047754
  4858.00    0.1058928
  4859.00    0.1069990
  4860.00    0.1080956
  4861.00    0.1091842
  4862.00    0.1102664
  4863.00    0.1113439
  4864.00    0.1124183
  4865.00    0.1134912
  4866.00    0.1145643
  4867.00    0.1156391
  4868.00    0.1167173
  4869.00    0.1178005
  4870.00    0.1188903
  4871.00    0.1199884
  4872.00    0.1210964
  4873.00    0.1222159
  4874.00    0.1233486
  4875.00    0.1244962
  4876.00    0.1256601
  4877.00    0.1268422
  4878.00    0.1280441
  4879.00    0.1292675
  4880.00    0.1305140
  4881.00    0.1317853
  4882.00    0.1330832
  4883.00    0.1344093
  4884.00    0.1357654
  4885.00    0.1371532
  4886.00    0.1385745
  4887.00    0.1400310
  4888.00    0.1415244
  4889.00    0.1430567
  4890.00    0.1446295
  4891.00    0.1462448
  4892.00    0.1479043
  4893.00    0.1496099
  4894.00    0.1513635
  4895.00    0.1531669
  4896.00    0.1550222
  4897.00    0.1569311
  4898.00    0.1588958
  4899.00    0.1609181
  4900.00    0.1630000
  4901.00    0.1651430
  4902.00    0.1673457
  4903.00    0.1696064
  4904.00    0.1719231
  4905.00    0.1742941
  4906.00    0.1767174
  4907.00    0.1791914
  4908.00    0.1817143
  4909.00    0.1842843
  4910.00    0.1868996
  4911.00    0.1895586
  4912.00    0.1922597
  4913.00    0.1950010
  4914.00    0.1977809
  4915.00    0.2005979
  4916.00    0.2034502
  4917.00    0.2063363
  4918.00    0.2092546
  4919.00    0.2122034
  4920.00    0.2151812
  4921.00    0.2181864
  4922.00    0.2212175
  4923.00    0.2242729
  4924.00    0.2273510
  4925.00    0.2304505
  4926.00    0.2335697
  4927.00    0.2367071
  4928.00    0.2398613
  4929.00    0.2430307
  4930.00    0.2462138
  4931.00    0.2494092
  4932.00    0.2526154
  4933.00    0.2558309
  4934.00    0.2590543
  4935.00    0.2622840
  4936.00    0.2655187
  4937.00    0.2687568
  4938.00    0.2719968
  4939.00    0.2752374
  4940.00    0.2784771
  4941.00    0.2817144
  4942.00    0.2849478
  4943.00    0.2881759
  4944.00    0.2913972
  4945.00    0.2946102
  4946.00    0.2978136
  4947.00    0.3010057
  4948.00    0.3041851
  4949.00    0.3073504
  4950.00    0.3105000
  4951.00    0.3136328
  4952.00    0.3167491
  4953.00    0.3198495
  4954.00    0.3229345
  4955.00    0.3260049
  4956.00    0.3290611
  4957.00    0.3321039
  4958.00    0.3351337
  4959.00    0.3381512
  4960.00    0.3411570
  4961.00    0.3441515
  4962.00    0.3471354
  4963.00    0.3501093
  4964.00    0.3530737
  4965.00    0.3560291
  4966.00    0.3589761
  4967.00    0.3619153
  4968.00    0.3648472
  4969.00    0.3677724
  4970.00    0.3706913
  4971.00    0.3736046
  4972.00    0.3765127
  4973.00    0.3794162
  4974.00    0.3823157
  4975.00    0.3852116
  4976.00    0.3881045
  4977.00    0.3909949
  4978.00    0.3938833
  4979.00    0.3967703
  4980.00    0.3996564
  4981.00    0.4025422
  4982.00    0.4054280
  4983.00    0.4083145
  4984.00    0.4112023
  4985.00    0.4140917
  4986.00    0.4169834
  4987.00    0.4198778
  4988.00    0.4227755
  4989.00    0.4256771
  4990.00    0.4285830
  4991.00    0.4314938
  4992.00    0.4344100
  4993.00    0.4373322
  4994.00    0.4402609
  4995.00    0.4431966
  4996.00    0.4461399
  4997.00    0.4490914
  4998.00    0.4520515
  4999.00    0.4550208
  5000.00    0.4580000
  5001.00    0.4609894
  5002.00    0.4639891
  5003.00    0.4669989
  5004.00    0.4700188
  5005.00    0.4730486
  5006.00    0.4760884
  5007.00    0.4791379
  5008.00    0.4821972
  5009.00    0.4852661
  5010.00    0.4883447
  5011.00    0.4914327
  5012.00    0.4945302
  5013.00    0.4976371
  5014.00    0.5007534
  5015.00    0.5038789
  5016.00    0.5070137
  5017.00    0.5101577
  5018.00    0.5133108
  5019.00    0.5164731
  5020.00    0.5196445
  5021.00    0.5228249
  5022.00    0.5260144
  5023.00    0.5292129
  5024.00    0.5324204
  5025.00    0.5356369
  5026.00    0.5388623
  5027.00    0.5420967
  5028.00    0.5453401
  5029.00    0.5485925
  5030.00    0.5518538
  5031.00    0.5551240
  5032.00    0.5584033
  5033.00    0.5616916
  5034.00    0.5649888
  5035.00    0.5682952
  5036.00    0.5716105
  5037.00    0.5749350
  5038.00    0.5782686
  5039.00    0.5816113
  5040.00    0.5849633
  5041.00    0.5883245
  5042.00    0.5916950
  5043.00    0.5950748
  5044.00    0.5984640
  5045.00    0.6018626
  5046.00    0.6052708
  5047.00    0.6086886
  5048.00    0.6121160
  5049.00    0.6155531
  5050.00    0.6190000
  5051.00    0.6224566
  5052.00    0.6259220
  5053.00    0.6293949
  5054.00    0.6328743
  5055.00    0.6363591
  5056.00    0.6398480
  5057.00    0.6433401
  5058.00    0.6468341
  5059.00    0.6503289
  5060.00    0.6538235
  5061.00    0.6573166
  5062.00    0.6608072
  5063.00    0.6642941
  5064.00    0.6677763
  5065.00    0.6712525
  5066.00    0.6747216
  5067.00    0.6781826
  5068.00    0.6816342
  5069.00    0.6850753
  5070.00    0.6885049
  5071.00    0.6919216
  5072.00    0.6953245
  5073.00    0.6987122
  5074.00    0.7020837
  5075.00    0.7054377
  5076.00    0.7087732
  5077.00    0.7120888
  5078.00    0.7153835
  5079.00    0.7186559
  5080.00    0.7219050
  5081.00    0.7251294
  5082.00    0.7283279
  5083.00    0.7314993
  5084.00    0.7346424
  5085.00    0.7377558
  5086.00    0.7408383
  5087.00    0.7438886
  5088.00    0.7469054
  5089.00    0.7498874
  5090.00    0.7528333
  5091.00    0.7557416
  5092.00    0.7586111
  5093.00    0.7614404
  5094.00    0.7642281
  5095.00    0.7669727
  5096.00    0.7696729
  5097.00    0.7723272
  5098.00    0.7749341
  5099.00    0.7774922
  5100.00    0.7800000
  5101.00    0.7824564
  5102.00    0.7848629
  5103.00    0.7872211
  5104.00    0.7895327
  5105.00    0.7917997
  5106.00    0.7940236
  5107.00    0.7962062
  5108.00    0.7983493
  5109.00    0.8004544
  5110.00    0.8025232
  5111.00    0.8045575
  5112.00    0.8065588
  5113.00    0.8085288
  5114.00    0.8104690
  5115.00    0.8123811
  5116.00    0.8142667
  5117.00    0.8161273
  5118.00    0.8179645
  5119.00    0.8197799
  5120.00    0.8215750
  5121.00    0.8233514
  5122.00    0.8251106
  5123.00    0.8268541
  5124.00    0.8285834
  5125.00    0.8303001
  5126.00    0.8320057
  5127.00    0.8337016
  5128.00    0.8353895
  5129.00    0.8370707
  5130.00    0.8387468
  5131.00    0.8404193
  5132.00    0.8420896
  5133.00    0.8437593
  5134.00    0.8454298
  5135.00    0.8471027
  5136.00    0.8487794
  5137.00    0.8504615
  5138.00    0.8521504
  5139.00    0.8538476
  5140.00    0.8555546
  5141.00    0.8572730
  5142.00    0.8590042
  5143.00    0.8607498
  5144.00    0.8625113
  5145.00    0.8642902
  5146.00    0.8660881
  5147.00    0.8679064
  5148.00    0.8697468
  5149.00    0.8716108
  5150.00    0.8735000
  5151.00    0.8754154
  5152.00    0.8773558
  5153.00    0.8793195
  5154.00    0.8813049
  5155.00    0.8833101
  5156.00    0.8853336
  5157.00    0.8873735
  5158.00    0.8894284
  5159.00    0.8914964
  5160.00    0.8935759
  5161.00    0.8956653
  5162.00    0.8977629
  5163.00    0.8998670
  5164.00    0.9019760
  5165.00    0.9040883
  5166.00    0.9062021
  5167.00    0.9083159
  5168.00    0.9104280
  5169.00    0.9125367
  5170.00    0.9146405
  5171.00    0.9167375
  5172.00    0.9188263
  5173.00    0.9209051
  5174.00    0.9229722
  5175.00    0.9250261
  5176.00    0.9270650
  5177.00    0.9290872
  5178.00    0.9310911
  5179.00    0.9330750
  5180.00    0.9350372
  5181.00    0.9369759
  5182.00    0.9388895
  5183.00    0.9407762
  5184.00    0.9426342
  5185.00    0.9444619
  5186.00    0.9462575
  5187.00    0.9480192
  5188.00    0.9497452
  5189.00    0.9514337
  5190.00    0.9530828
  5191.00    0.9546909
  5192.00    0.9562559
  5193.00    0.9577760
  5194.00    0.9592494
  5195.00    0.9606742
  5196.00    0.9620484
  5197.00    0.9633700
  5198.00    0.9646371
  5199.00    0.9658478
  5200.00    0.9670000
  5201.00    0.9680923
  5202.00    0.9691261
  5203.00    0.9701032
  5204.00    0.9710254
  5205.00    0.9718948
  5206.00    0.9727130
  5207.00    0.9734820
  5208.00    0.9742035
  5209.00    0.9748794
  5210.00    0.9755113
  5211.00    0.9761010
  5212.00    0.9766503
  5213.00    0.9771609
  5214.00    0.9776344
  5215.00    0.9780726
  5216.00    0.9784771
  5217.00    0.9788496
  5218.00    0.9791917
  5219.00    0.9795051
  5220.00    0.9797913
  5221.00    0.9800520
  5222.00    0.9802888
  5223.00    0.9805033
  5224.00    0.9806970
  5225.00    0.9808715
  5226.00    0.9810284
  5227.00    0.9811692
  5228.00    0.9812955
  5229.00    0.9814089
  5230.00    0.9815108
  5231.00    0.9816028
  5232.00    0.9816865
  5233.00    0.9817633
  5234.00    0.9818348
  5235.00    0.9819026
  5236.00    0.9819681
  5237.00    0.9820328
  5238.00    0.9820983
  5239.00    0.9821661
  5240.00    0.9822377
  5241.00    0.9823146
  5242.00    0.9823984
  5243.00    0.9824906
  5244.00    0.9825927
  5245.00    0.9827063
  5246.00    0.9828328
  5247.00    0.9829739
  5248.00    0.9831311
  5249.00    0.9833060
  5250.00    0.9835000
  5251.00    0.9837144
  5252.00    0.9839486
  5253.00    0.9842016
  5254.00    0.9844724
  5255.00    0.9847600
  5256.00    0.9850635
  5257.00    0.9853819
  5258.00    0.9857143
  5259.00    0.9860597
  5260.00    0.9864171
  5261.00    0.9867857
  5262.00    0.9871644
  5263.00    0.9875524
  5264.00    0.9879488
  5265.00    0.9883525
  5266.00    0.9887627
  5267.00    0.9891785
  5268.00    0.9895989
  5269.00    0.9900231
  5270.00    0.9904500
  5271.00    0.9908789
  5272.00    0.9913088
  5273.00    0.9917387
  5274.00    0.9921679
  5275.00    0.9925953
  5276.00    0.9930200
  5277.00    0.9934412
  5278.00    0.9938579
  5279.00    0.9942692
  5280.00    0.9946742
  5281.00    0.9950720
  5282.00    0.9954616
  5283.00    0.9958421
  5284.00    0.9962127
  5285.00    0.9965722
  5286.00    0.9969199
  5287.00    0.9972548
  5288.00    0.9975759
  5289.00    0.9978822
  5290.00    0.9981729
  5291.00    0.9984468
  5292.00    0.9987032
  5293.00    0.9989410
  5294.00    0.9991591
  5295.00    0.9993566
  5296.00    0.9995326
  5297.00    0.9996859
  5298.00    0.9998156
  5299.00    0.9999207
  5300.00    1.0000000
  5301.00    1.0000529
  5302.00    1.0000799
  5303.00    1.0000820
  5304.00    1.0000599
  5305.00    1.0000145
  5306.00    0.9999467
  5307.00    0.9998573
  5308.00    0.9997472
  5309.00    0.9996171
  5310.00    0.9994679
  5311.00    0.9993003
  5312.00    0.9991153
  5313.00    0.9989135
  5314.00    0.9986958
  5315.00    0.9984629
  5316.00    0.9982156
  5317.00    0.9979546
  5318.00    0.9976808
  5319.00    0.9973949
  5320.00    0.9970976
  5321.00    0.9967897
  5322.00    0.9964719
  5323.00    0.9961450
  5324.00    0.9958097
  5325.00    0.9954667
  5326.00    0.9951167
  5327.00    0.9947605
  5328.00    0.9943989
  5329.00    0.9940324
  5330.00    0.9936619
  5331.00    0.9932880
  5332.00    0.9929115
  5333.00    0.9925331
  5334.00    0.9921535
  5335.00    0.9917734
  5336.00    0.9913935
  5337.00    0.9910146
  5338.00    0.9906373
  5339.00    0.9902624
  5340.00    0.9898906
  5341.00    0.9895225
  5342.00    0.9891590
  5343.00    0.9888007
  5344.00    0.9884483
  5345.00    0.9881027
  5346.00    0.9877644
  5347.00    0.9874343
  5348.00    0.9871130
  5349.00    0.9868013
  5350.00    0.9865000
  5351.00    0.9862096
  5352.00    0.9859296
  5353.00    0.9856594
  5354.00    0.9853985
  5355.00    0.9851462
  5356.00    0.9849018
  5357.00    0.9846649
  5358.00    0.9844348
  5359.00    0.9842108
  5360.00    0.9839924
  5361.00    0.9837790
  5362.00    0.9835700
  5363.00    0.9833648
  5364.00    0.9831628
  5365.00    0.9829634
  5366.00    0.9827660
  5367.00    0.9825701
  5368.00    0.9823750
  5369.00    0.9821802
  5370.00    0.9819850
  5371.00    0.9817889
  5372.00    0.9815914
  5373.00    0.9813917
  5374.00    0.9811893
  5375.00    0.9809837
  5376.00    0.9807742
  5377.00    0.9805602
  5378.00    0.9803412
  5379.00    0.9801166
  5380.00    0.9798857
  5381.00    0.9796479
  5382.00    0.9794026
  5383.00    0.9791493
  5384.00    0.9788874
  5385.00    0.9786161
  5386.00    0.9783349
  5387.00    0.9780432
  5388.00    0.9777403
  5389.00    0.9774256
  5390.00    0.9770985
  5391.00    0.9767583
  5392.00    0.9764044
  5393.00    0.9760361
  5394.00    0.9756528
  5395.00    0.9752539
  5396.00    0.9748385
  5397.00    0.9744062
  5398.00    0.9739561
  5399.00    0.9734876
  5400.00    0.9730000
  5401.00    0.9724928
  5402.00    0.9719665
  5403.00    0.9714216
  5404.00    0.9708589
  5405.00    0.9702789
  5406.00    0.9696822
  5407.00    0.9690695
  5408.00    0.9684414
  5409.00    0.9677984
  5410.00    0.9671412
  5411.00    0.9664704
  5412.00    0.9657865
  5413.00    0.9650901
  5414.00    0.9643818
  5415.00    0.9636621
  5416.00    0.9629316
  5417.00    0.9621909
  5418.00    0.9614406
  5419.00    0.9606810
  5420.00    0.9599130
  5421.00    0.9591368
  5422.00    0.9583532
  5423.00    0.9575626
  5424.00    0.9567656
  5425.00    0.9559627
  5426.00    0.9551544
  5427.00    0.9543413
  5428.00    0.9535239
  5429.00    0.9527026
  5430.00    0.9518781
  5431.00    0.9510509
  5432.00    0.9502214
  5433.00    0.9493902
  5434.00    0.9485578
  5435.00    0.9477247
  5436.00    0.9468915
  5437.00    0.9460586
  5438.00    0.9452266
  5439.00    0.9443960
  5440.00    0.9435673
  5441.00    0.9427410
  5442.00    0.9419177
  5443.00    0.9410979
  5444.00    0.9402820
  5445.00    0.9394706
  5446.00    0.9386643
  5447.00    0.9378636
  5448.00    0.9370689
  5449.00    0.9362809
  5450.00    0.9355000
  5451.00    0.9347267
  5452.00    0.9339607
  5453.00    0.9332015
  5454.00    0.9324489
  5455.00    0.9317022
  5456.00    0.9309613
  5457.00    0.9302256
  5458.00    0.9294947
  5459.00    0.9287683
  5460.00    0.9280460
  5461.00    0.9273274
  5462.00    0.9266120
  5463.00    0.9258996
  5464.00    0.9251896
  5465.00    0.9244817
  5466.00    0.9237756
  5467.00    0.9230708
  5468.00    0.9223669
  5469.00    0.9216636
  5470.00    0.9209605
  5471.00    0.9202572
  5472.00    0.9195533
  5473.00    0.9188484
  5474.00    0.9181421
  5475.00    0.9174341
  5476.00    0.9167239
  5477.00    0.9160112
  5478.00    0.9152956
  5479.00    0.9145767
  5480.00    0.9138540
  5481.00    0.9131273
  5482.00    0.9123960
  5483.00    0.9116599
  5484.00    0.9109185
  5485.00    0.9101713
  5486.00    0.9094181
  5487.00    0.9086584
  5488.00    0.9078918
  5489.00    0.9071178
  5490.00    0.9063361
  5491.00    0.9055463
  5492.00    0.9047478
  5493.00    0.9039404
  5494.00    0.9031236
  5495.00    0.9022969
  5496.00    0.9014598
  5497.00    0.9006121
  5498.00    0.8997532
  5499.00    0.8988826
  5500.00    0.8980000
  5501.00    0.8971050
  5502.00    0.8961978
  5503.00    0.8952788
  5504.00    0.8943485
  5505.00    0.8934071
  5506.00    0.8924551
  5507.00    0.8914927
  5508.00    0.8905204
  5509.00    0.8895385
  5510.00    0.8885474
  5511.00    0.8875473
  5512.00    0.8865387
  5513.00    0.8855219
  5514.00    0.8844972
  5515.00    0.8834650
  5516.00    0.8824255
  5517.00    0.8813791
  5518.00    0.8803262
  5519.00    0.8792670
  5520.00    0.8782019
  5521.00    0.8771311
  5522.00    0.8760551
  5523.00    0.8749740
  5524.00    0.8738883
  5525.00    0.8727982
  5526.00    0.8717041
  5527.00    0.8706061
  5528.00    0.8695047
  5529.00    0.8684002
  5530.00    0.8672928
  5531.00    0.8661828
  5532.00    0.8650706
  5533.00    0.8639564
  5534.00    0.8628405
  5535.00    0.8617233
  5536.00    0.8606049
  5537.00    0.8594858
  5538.00    0.8583662
  5539.00    0.8572464
  5540.00    0.8561267
  5541.00    0.8550074
  5542.00    0.8538888
  5543.00    0.8527712
  5544.00    0.8516548
  5545.00    0.8505400
  5546.00    0.8494271
  5547.00    0.8483163
  5548.00    0.8472080
  5549.00    0.8461025
  5550.00    0.8450000
  5551.00    0.8439008
  5552.00    0.8428049
  5553.00    0.8417121
  5554.00    0.8406223
  5555.00    0.8395355
  5556.00    0.8384514
  5557.00    0.8373700
  5558.00    0.8362912
  5559.00    0.8352149
