#the total throughput for the optical system including mirror+lenses+ccd, filter transmission is not included
#creator: /Users/zhuqf/research/WFST/sensitivity/throughput/compute_tot_trans.pro
#source: /Users/zhuqf/research/WFST/sensitivity/throughput/tele_trans/tele_trans.txt
#source: /Users/zhuqf/research/WFST/sensitivity/throughput/optics_trans/corrector_trans.txt
#source: /Users/zhuqf/research/WFST/sensitivity/throughput/ccd_qe/ccd_qe_sci.txt
     wave     trans_tot_sys
 3000.000         0.0005906
 3001.000         0.0006274
 3002.000         0.0006668
 3003.000         0.0007087
 3004.000         0.0007532
 3005.000         0.0008003
 3006.000         0.0008499
 3007.000         0.0009021
 3008.000         0.0009570
 3009.000         0.0010146
 3010.000         0.0010749
 3011.000         0.0011382
 3012.000         0.0012044
 3013.000         0.0012735
 3014.000         0.0013455
 3015.000         0.0014205
 3016.000         0.0014985
 3017.000         0.0015793
 3018.000         0.0016632
 3019.000         0.0017499
 3020.000         0.0018396
 3021.000         0.0019323
 3022.000         0.0020278
 3023.000         0.0021263
 3024.000         0.0022278
 3025.000         0.0023324
 3026.000         0.0024401
 3027.000         0.0025510
 3028.000         0.0026651
 3029.000         0.0027826
 3030.000         0.0029035
 3031.000         0.0030280
 3032.000         0.0031561
 3033.000         0.0032878
 3034.000         0.0034234
 3035.000         0.0035627
 3036.000         0.0037060
 3037.000         0.0038533
 3038.000         0.0040047
 3039.000         0.0041602
 3040.000         0.0043199
 3041.000         0.0044840
 3042.000         0.0046523
 3043.000         0.0048249
 3044.000         0.0050015
 3045.000         0.0051823
 3046.000         0.0053670
 3047.000         0.0055559
 3048.000         0.0057487
 3049.000         0.0059456
 3050.000         0.0061465
 3051.000         0.0063515
 3052.000         0.0065606
 3053.000         0.0067735
 3054.000         0.0069903
 3055.000         0.0072109
 3056.000         0.0074352
 3057.000         0.0076630
 3058.000         0.0078944
 3059.000         0.0081292
 3060.000         0.0083673
 3061.000         0.0086086
 3062.000         0.0088532
 3063.000         0.0091014
 3064.000         0.0093532
 3065.000         0.0096089
 3066.000         0.0098686
 3067.000         0.0101325
 3068.000         0.0104009
 3069.000         0.0106740
 3070.000         0.0109522
 3071.000         0.0112356
 3072.000         0.0115244
 3073.000         0.0118189
 3074.000         0.0121193
 3075.000         0.0124257
 3076.000         0.0127385
 3077.000         0.0130579
 3078.000         0.0133841
 3079.000         0.0137174
 3080.000         0.0140582
 3081.000         0.0144066
 3082.000         0.0147625
 3083.000         0.0151256
 3084.000         0.0154956
 3085.000         0.0158721
 3086.000         0.0162550
 3087.000         0.0166438
 3088.000         0.0170385
 3089.000         0.0174385
 3090.000         0.0178437
 3091.000         0.0182538
 3092.000         0.0186684
 3093.000         0.0190872
 3094.000         0.0195098
 3095.000         0.0199359
 3096.000         0.0203650
 3097.000         0.0207968
 3098.000         0.0212308
 3099.000         0.0216665
 3100.000         0.0221035
 3101.000         0.0225414
 3102.000         0.0229806
 3103.000         0.0234215
 3104.000         0.0238649
 3105.000         0.0243113
 3106.000         0.0247614
 3107.000         0.0252158
 3108.000         0.0256753
 3109.000         0.0261406
 3110.000         0.0266126
 3111.000         0.0270919
 3112.000         0.0275788
 3113.000         0.0280731
 3114.000         0.0285750
 3115.000         0.0290843
 3116.000         0.0296010
 3117.000         0.0301251
 3118.000         0.0306565
 3119.000         0.0311952
 3120.000         0.0317411
 3121.000         0.0322941
 3122.000         0.0328542
 3123.000         0.0334213
 3124.000         0.0339955
 3125.000         0.0345768
 3126.000         0.0351653
 3127.000         0.0357609
 3128.000         0.0363639
 3129.000         0.0369742
 3130.000         0.0375920
 3131.000         0.0382175
 3132.000         0.0388505
 3133.000         0.0394911
 3134.000         0.0401392
 3135.000         0.0407948
 3136.000         0.0414578
 3137.000         0.0421283
 3138.000         0.0428063
 3139.000         0.0434917
 3140.000         0.0441847
 3141.000         0.0448852
 3142.000         0.0455932
 3143.000         0.0463088
 3144.000         0.0470319
 3145.000         0.0477626
 3146.000         0.0485011
 3147.000         0.0492474
 3148.000         0.0500017
 3149.000         0.0507642
 3150.000         0.0515351
 3151.000         0.0523147
 3152.000         0.0531024
 3153.000         0.0538978
 3154.000         0.0547001
 3155.000         0.0555089
 3156.000         0.0563234
 3157.000         0.0571431
 3158.000         0.0579672
 3159.000         0.0587951
 3160.000         0.0596260
 3161.000         0.0604591
 3162.000         0.0612943
 3163.000         0.0621313
 3164.000         0.0629699
 3165.000         0.0638099
 3166.000         0.0646510
 3167.000         0.0654931
 3168.000         0.0663359
 3169.000         0.0671790
 3170.000         0.0680223
 3171.000         0.0688656
 3172.000         0.0697087
 3173.000         0.0705519
 3174.000         0.0713951
 3175.000         0.0722384
 3176.000         0.0730820
 3177.000         0.0739259
 3178.000         0.0747704
 3179.000         0.0756157
 3180.000         0.0764620
 3181.000         0.0773093
 3182.000         0.0781567
 3183.000         0.0790029
 3184.000         0.0798466
 3185.000         0.0806863
 3186.000         0.0815204
 3187.000         0.0823474
 3188.000         0.0831653
 3189.000         0.0839721
 3190.000         0.0847657
 3191.000         0.0855446
 3192.000         0.0863117
 3193.000         0.0870706
 3194.000         0.0878252
 3195.000         0.0885794
 3196.000         0.0893372
 3197.000         0.0901027
 3198.000         0.0908802
 3199.000         0.0916742
 3200.000         0.0924895
 3201.000         0.0933297
 3202.000         0.0941925
 3203.000         0.0950742
 3204.000         0.0959712
 3205.000         0.0968797
 3206.000         0.0977958
 3207.000         0.0987156
 3208.000         0.0996349
 3209.000         0.1005495
 3210.000         0.1014547
 3211.000         0.1023470
 3212.000         0.1032288
 3213.000         0.1041035
 3214.000         0.1049747
 3215.000         0.1058461
 3216.000         0.1067215
 3217.000         0.1076046
 3218.000         0.1084994
 3219.000         0.1094103
 3220.000         0.1103415
 3221.000         0.1112965
 3222.000         0.1122731
 3223.000         0.1132678
 3224.000         0.1142770
 3225.000         0.1152974
 3226.000         0.1163254
 3227.000         0.1173576
 3228.000         0.1183904
 3229.000         0.1194202
 3230.000         0.1204431
 3231.000         0.1214558
 3232.000         0.1224560
 3233.000         0.1234421
 3234.000         0.1244121
 3235.000         0.1253641
 3236.000         0.1262959
 3237.000         0.1272053
 3238.000         0.1280899
 3239.000         0.1289471
 3240.000         0.1297743
 3241.000         0.1305698
 3242.000         0.1313376
 3243.000         0.1320829
 3244.000         0.1328107
 3245.000         0.1335263
 3246.000         0.1342349
 3247.000         0.1349417
 3248.000         0.1356521
 3249.000         0.1363715
 3250.000         0.1371057
 3251.000         0.1378594
 3252.000         0.1386329
 3253.000         0.1394255
 3254.000         0.1402366
 3255.000         0.1410656
 3256.000         0.1419119
 3257.000         0.1427749
 3258.000         0.1436538
 3259.000         0.1445480
 3260.000         0.1454565
 3261.000         0.1463787
 3262.000         0.1473164
 3263.000         0.1482717
 3264.000         0.1492471
 3265.000         0.1502451
 3266.000         0.1512683
 3267.000         0.1523200
 3268.000         0.1534034
 3269.000         0.1545223
 3270.000         0.1556810
 3271.000         0.1568814
 3272.000         0.1581149
 3273.000         0.1593699
 3274.000         0.1606349
 3275.000         0.1618983
 3276.000         0.1631480
 3277.000         0.1643720
 3278.000         0.1655575
 3279.000         0.1666914
 3280.000         0.1677598
 3281.000         0.1687527
 3282.000         0.1696764
 3283.000         0.1705413
 3284.000         0.1713576
 3285.000         0.1721356
 3286.000         0.1728854
 3287.000         0.1736171
 3288.000         0.1743410
 3289.000         0.1750677
 3290.000         0.1758080
 3291.000         0.1765701
 3292.000         0.1773503
 3293.000         0.1781420
 3294.000         0.1789388
 3295.000         0.1797341
 3296.000         0.1805213
 3297.000         0.1812934
 3298.000         0.1820434
 3299.000         0.1827638
 3300.000         0.1834467
 3301.000         0.1840870
 3302.000         0.1846929
 3303.000         0.1852756
 3304.000         0.1858465
 3305.000         0.1864169
 3306.000         0.1869981
 3307.000         0.1876020
 3308.000         0.1882407
 3309.000         0.1889270
 3310.000         0.1896741
 3311.000         0.1904915
 3312.000         0.1913699
 3313.000         0.1922954
 3314.000         0.1932546
 3315.000         0.1942342
 3316.000         0.1952206
 3317.000         0.1962003
 3318.000         0.1971594
 3319.000         0.1980838
 3320.000         0.1989586
 3321.000         0.1997728
 3322.000         0.2005332
 3323.000         0.2012506
 3324.000         0.2019355
 3325.000         0.2025987
 3326.000         0.2032504
 3327.000         0.2039012
 3328.000         0.2045619
 3329.000         0.2052433
 3330.000         0.2059569
 3331.000         0.2067109
 3332.000         0.2075008
 3333.000         0.2083186
 3334.000         0.2091567
 3335.000         0.2100074
 3336.000         0.2108631
 3337.000         0.2117160
 3338.000         0.2125583
 3339.000         0.2133817
 3340.000         0.2141778
 3341.000         0.2149401
 3342.000         0.2156724
 3343.000         0.2163806
 3344.000         0.2170706
 3345.000         0.2177479
 3346.000         0.2184183
 3347.000         0.2190872
 3348.000         0.2197605
 3349.000         0.2204439
 3350.000         0.2211433
 3351.000         0.2218635
 3352.000         0.2226036
 3353.000         0.2233614
 3354.000         0.2241350
 3355.000         0.2249224
 3356.000         0.2257218
 3357.000         0.2265315
 3358.000         0.2273499
 3359.000         0.2281754
 3360.000         0.2290066
 3361.000         0.2298422
 3362.000         0.2306827
 3363.000         0.2315290
 3364.000         0.2323820
 3365.000         0.2332427
 3366.000         0.2341123
 3367.000         0.2349921
 3368.000         0.2358836
 3369.000         0.2367885
 3370.000         0.2377086
 3371.000         0.2386440
 3372.000         0.2395874
 3373.000         0.2405296
 3374.000         0.2414613
 3375.000         0.2423730
 3376.000         0.2432551
 3377.000         0.2440977
 3378.000         0.2448905
 3379.000         0.2456228
 3380.000         0.2462834
 3381.000         0.2468643
 3382.000         0.2473728
 3383.000         0.2478196
 3384.000         0.2482151
 3385.000         0.2485695
 3386.000         0.2488929
 3387.000         0.2491950
 3388.000         0.2494857
 3389.000         0.2497750
 3390.000         0.2500730
 3391.000         0.2503873
 3392.000         0.2507153
 3393.000         0.2510520
 3394.000         0.2513924
 3395.000         0.2517316
 3396.000         0.2520649
 3397.000         0.2523871
 3398.000         0.2526935
 3399.000         0.2529787
 3400.000         0.2532375
 3401.000         0.2534673
 3402.000         0.2536785
 3403.000         0.2538844
 3404.000         0.2540982
 3405.000         0.2543335
 3406.000         0.2546038
 3407.000         0.2549231
 3408.000         0.2553059
 3409.000         0.2557670
 3410.000         0.2563223
 3411.000         0.2569832
 3412.000         0.2577409
 3413.000         0.2585820
 3414.000         0.2594937
 3415.000         0.2604634
 3416.000         0.2614786
 3417.000         0.2625268
 3418.000         0.2635953
 3419.000         0.2646706
 3420.000         0.2657389
 3421.000         0.2667890
 3422.000         0.2678237
 3423.000         0.2688491
 3424.000         0.2698706
 3425.000         0.2708936
 3426.000         0.2719234
 3427.000         0.2729653
 3428.000         0.2740248
 3429.000         0.2751076
 3430.000         0.2762199
 3431.000         0.2773661
 3432.000         0.2785413
 3433.000         0.2797388
 3434.000         0.2809522
 3435.000         0.2821752
 3436.000         0.2834019
 3437.000         0.2846265
 3438.000         0.2858438
 3439.000         0.2870484
 3440.000         0.2882353
 3441.000         0.2893995
 3442.000         0.2905343
 3443.000         0.2916329
 3444.000         0.2926884
 3445.000         0.2936936
 3446.000         0.2946415
 3447.000         0.2955247
 3448.000         0.2963352
 3449.000         0.2970651
 3450.000         0.2977054
 3451.000         0.2982508
 3452.000         0.2987112
 3453.000         0.2990996
 3454.000         0.2994289
 3455.000         0.2997115
 3456.000         0.2999597
 3457.000         0.3001855
 3458.000         0.3004010
 3459.000         0.3006183
 3460.000         0.3008495
 3461.000         0.3011045
 3462.000         0.3013840
 3463.000         0.3016861
 3464.000         0.3020094
 3465.000         0.3023526
 3466.000         0.3027145
 3467.000         0.3030941
 3468.000         0.3034908
 3469.000         0.3039036
 3470.000         0.3043322
 3471.000         0.3047756
 3472.000         0.3052318
 3473.000         0.3056984
 3474.000         0.3061731
 3475.000         0.3066534
 3476.000         0.3071370
 3477.000         0.3076213
 3478.000         0.3081037
 3479.000         0.3085815
 3480.000         0.3090517
 3481.000         0.3095122
 3482.000         0.3099657
 3483.000         0.3104160
 3484.000         0.3108665
 3485.000         0.3113208
 3486.000         0.3117823
 3487.000         0.3122544
 3488.000         0.3127405
 3489.000         0.3132442
 3490.000         0.3137691
 3491.000         0.3143183
 3492.000         0.3148907
 3493.000         0.3154849
 3494.000         0.3160994
 3495.000         0.3167329
 3496.000         0.3173842
 3497.000         0.3180523
 3498.000         0.3187363
 3499.000         0.3194355
 3500.000         0.3201491
 3501.000         0.3208766
 3502.000         0.3216165
 3503.000         0.3223674
 3504.000         0.3231279
 3505.000         0.3238966
 3506.000         0.3246723
 3507.000         0.3254536
 3508.000         0.3262393
 3509.000         0.3270279
 3510.000         0.3278180
 3511.000         0.3286090
 3512.000         0.3294032
 3513.000         0.3302040
 3514.000         0.3310143
 3515.000         0.3318376
 3516.000         0.3326768
 3517.000         0.3335353
 3518.000         0.3344164
 3519.000         0.3353234
 3520.000         0.3362599
 3521.000         0.3372281
 3522.000         0.3382255
 3523.000         0.3392479
 3524.000         0.3402916
 3525.000         0.3413525
 3526.000         0.3424267
 3527.000         0.3435103
 3528.000         0.3445990
 3529.000         0.3456887
 3530.000         0.3467750
 3531.000         0.3478549
 3532.000         0.3489312
 3533.000         0.3500083
 3534.000         0.3510905
 3535.000         0.3521824
 3536.000         0.3532883
 3537.000         0.3544130
 3538.000         0.3555613
 3539.000         0.3567383
 3540.000         0.3579497
 3541.000         0.3591985
 3542.000         0.3604772
 3543.000         0.3617758
 3544.000         0.3630843
 3545.000         0.3643928
 3546.000         0.3656913
 3547.000         0.3669696
 3548.000         0.3682173
 3549.000         0.3694236
 3550.000         0.3705776
 3551.000         0.3716701
 3552.000         0.3727018
 3553.000         0.3736757
 3554.000         0.3745941
 3555.000         0.3754595
 3556.000         0.3762739
 3557.000         0.3770393
 3558.000         0.3777575
 3559.000         0.3784302
 3560.000         0.3790589
 3561.000         0.3796462
 3562.000         0.3801973
 3563.000         0.3807182
 3564.000         0.3812151
 3565.000         0.3816941
 3566.000         0.3821617
 3567.000         0.3826241
 3568.000         0.3830879
 3569.000         0.3835599
 3570.000         0.3840470
 3571.000         0.3845555
 3572.000         0.3850887
 3573.000         0.3856495
 3574.000         0.3862406
 3575.000         0.3868653
 3576.000         0.3875270
 3577.000         0.3882292
 3578.000         0.3889755
 3579.000         0.3897698
 3580.000         0.3906161
 3581.000         0.3915166
 3582.000         0.3924652
 3583.000         0.3934537
 3584.000         0.3944742
 3585.000         0.3955184
 3586.000         0.3965779
 3587.000         0.3976442
 3588.000         0.3987085
 3589.000         0.3997616
 3590.000         0.4007941
 3591.000         0.4017988
 3592.000         0.4027784
 3593.000         0.4037381
 3594.000         0.4046831
 3595.000         0.4056182
 3596.000         0.4065483
 3597.000         0.4074785
 3598.000         0.4084138
 3599.000         0.4093595
 3600.000         0.4103214
 3601.000         0.4113037
 3602.000         0.4123036
 3603.000         0.4133170
 3604.000         0.4143401
 3605.000         0.4153693
 3606.000         0.4164016
 3607.000         0.4174338
 3608.000         0.4184632
 3609.000         0.4194873
 3610.000         0.4205037
 3611.000         0.4215091
 3612.000         0.4224971
 3613.000         0.4234602
 3614.000         0.4243909
 3615.000         0.4252815
 3616.000         0.4261241
 3617.000         0.4269105
 3618.000         0.4276320
 3619.000         0.4282799
 3620.000         0.4288445
 3621.000         0.4293205
 3622.000         0.4297209
 3623.000         0.4300631
 3624.000         0.4303643
 3625.000         0.4306413
 3626.000         0.4309112
 3627.000         0.4311910
 3628.000         0.4314980
 3629.000         0.4318500
 3630.000         0.4322650
 3631.000         0.4327579
 3632.000         0.4333273
 3633.000         0.4339681
 3634.000         0.4346760
 3635.000         0.4354470
 3636.000         0.4362775
 3637.000         0.4371642
 3638.000         0.4381039
 3639.000         0.4390936
 3640.000         0.4401303
 3641.000         0.4412114
 3642.000         0.4423374
 3643.000         0.4435090
 3644.000         0.4447271
 3645.000         0.4459925
 3646.000         0.4473063
 3647.000         0.4486695
 3648.000         0.4500836
 3649.000         0.4515500
 3650.000         0.4530708
 3651.000         0.4546446
 3652.000         0.4562556
 3653.000         0.4578842
 3654.000         0.4595109
 3655.000         0.4611156
 3656.000         0.4626781
 3657.000         0.4641774
 3658.000         0.4655916
 3659.000         0.4668981
 3660.000         0.4680729
 3661.000         0.4691002
 3662.000         0.4699994
 3663.000         0.4707984
 3664.000         0.4715247
 3665.000         0.4722056
 3666.000         0.4728685
 3667.000         0.4735409
 3668.000         0.4742509
 3669.000         0.4750273
 3670.000         0.4759002
 3671.000         0.4768918
 3672.000         0.4779902
 3673.000         0.4791754
 3674.000         0.4804280
 3675.000         0.4817294
 3676.000         0.4830612
 3677.000         0.4844049
 3678.000         0.4857422
 3679.000         0.4870544
 3680.000         0.4883223
 3681.000         0.4895318
 3682.000         0.4906908
 3683.000         0.4918128
 3684.000         0.4929106
 3685.000         0.4939972
 3686.000         0.4950854
 3687.000         0.4961882
 3688.000         0.4973190
 3689.000         0.4984915
 3690.000         0.4997202
 3691.000         0.5010139
 3692.000         0.5023571
 3693.000         0.5037283
 3694.000         0.5051063
 3695.000         0.5064699
 3696.000         0.5077980
